# WAIS Divide lock-in depth from firn densification model calibrated to fit d15N data
# See Buizert et al. 2015 for details. File generated 8/19/2015
#Depth(m) LID(m)
0.7670	NaN
5.1353	NaN
9.2931	NaN
12.9988	NaN
16.3021	NaN
19.5273	NaN
22.8421	NaN
26.0581	NaN
29.0693	NaN
32.1020	NaN
34.7373	NaN
37.9141	NaN
40.7068	NaN
43.8041	NaN
46.3056	NaN
48.7266	NaN
51.4473	NaN
54.0194	NaN
56.6932	NaN
59.3464	NaN
61.7660	NaN
64.2010	NaN
66.7638	65.4646
69.2542	65.5040
71.7860	65.5718
74.1396	65.6783
76.4448	65.8038
78.7478	65.8832
81.1135	65.9336
83.4472	65.9724
85.6884	66.0309
88.0213	66.1074
90.3369	66.1258
92.5157	66.1170
94.7678	66.0031
97.2353	65.9815
99.9314	66.0056
102.2528	66.0675
104.5935	66.0430
106.9726	65.9547
109.3308	65.9045
111.6648	65.9014
114.2352	65.9166
116.3718	65.9148
118.8484	65.8234
121.0833	65.7628
123.5001	65.8601
125.9472	66.0155
128.1588	66.1789
130.4398	66.3231
132.5711	66.4213
134.7800	66.5837
137.3982	66.7909
139.5767	67.0635
141.7800	67.3271
144.0208	67.5028
146.0809	67.5147
148.4093	67.4549
150.7057	67.3785
153.0645	67.3550
155.4639	67.3657
157.9148	67.3481
160.1882	67.2668
162.3599	67.2449
164.7780	67.2016
166.9093	67.2299
169.2090	67.2198
171.4278	67.1576
173.6696	67.1104
175.9378	67.1199
178.3042	67.2259
180.6608	67.3624
182.8535	67.3525
185.0383	67.3717
187.3195	67.3442
189.6718	67.4277
191.9804	67.6217
194.3217	67.7787
196.6193	67.8924
198.9716	67.9475
201.5099	67.8600
203.7638	67.6659
206.1380	67.5695
208.3589	67.5191
210.5471	67.5578
212.8776	67.6010
215.3173	67.6277
217.5822	67.7249
220.1424	67.8634
222.4837	67.9345
224.5844	67.9437
226.9366	67.9375
229.0482	67.9611
231.4443	68.0862
233.7529	68.2632
236.2475	68.3740
238.6654	68.3721
241.2911	68.3663
243.6544	68.3626
245.9300	68.3290
248.4793	68.2932
250.9191	68.1905
253.2058	68.2195
255.6237	68.3310
258.0635	68.4623
260.4378	68.5310
262.9541	68.4838
265.5580	68.3844
268.0198	68.3751
270.4159	68.4463
272.6696	68.6714
275.1314	68.9449
277.5494	69.1379
280.1533	69.2714
282.4399	69.2639
284.8469	69.1711
287.0788	69.0747
289.4531	69.0762
291.8491	69.0705
294.1029	69.0605
296.3349	69.0470
298.7638	68.9924
301.0614	69.0237
303.4574	69.0258
305.8753	68.9991
308.3371	68.9061
310.7113	68.6746
313.0964	68.4322
315.5690	68.2422
318.1074	68.2214
320.4597	68.1830
323.0635	68.0821
325.3283	67.8987
327.8994	67.7517
330.2956	67.7441
332.5275	67.7990
335.0876	67.9083
337.5056	68.0027
339.9564	68.1532
342.2868	68.2746
344.7594	68.4301
347.0898	68.5648
349.4640	68.6627
351.7069	68.7392
353.9060	68.7582
356.4224	68.7753
358.8951	68.7317
361.3896	68.6847
363.7967	68.6013
366.3349	68.5060
368.5996	68.4842
370.9847	68.4466
373.5012	68.4472
375.6784	68.4641
377.9213	68.4363
380.1642	68.4378
382.5056	68.4157
384.7703	68.3976
387.4071	68.3810
389.7484	68.3588
392.0460	68.3241
394.5187	68.3458
396.7725	68.5203
399.2452	68.6743
401.5865	68.7637
403.9388	68.7321
406.2036	68.6087
408.7747	68.4811
410.8753	68.4467
413.2714	68.4295
415.3283	68.3965
417.6478	68.4051
419.8032	68.4809
421.8818	68.5594
424.1576	68.7447
426.1162	68.8745
428.3152	68.9432
430.5580	68.8460
433.1183	68.7344
435.5909	68.4736
438.0854	68.3793
440.2407	68.2962
442.4836	68.1521
444.6609	68.0702
447.0679	67.9409
449.3655	67.7644
451.5865	67.6008
453.7419	67.4580
455.9410	67.3383
458.1511	67.3560
460.4705	67.3609
463.0417	67.4998
465.4705	67.6339
467.7572	67.9192
469.9455	68.1639
472.2321	68.4186
474.5953	68.5595
476.8600	68.4911
479.3983	68.2368
481.6084	68.0349
483.7747	67.9148
485.9739	67.9702
488.1182	68.0363
490.3502	68.0595
492.7681	68.0786
495.0548	68.1309
497.3742	68.3002
499.8032	68.5143
502.2102	68.6956
504.4421	68.7201
506.8381	68.6235
509.1248	68.4787
511.3130	68.4070
513.4793	68.4665
515.7879	68.5209
518.0088	68.5615
520.4924	68.4634
522.7681	68.3853
524.8906	68.3602
527.2320	68.4414
529.2889	68.6081
531.5756	68.7967
533.9388	68.8596
536.2802	68.8827
538.6762	68.8516
541.0394	68.7164
543.7637	68.5846
546.0942	68.4257
548.5558	68.3372
550.9301	68.3255
553.1292	68.3842
555.6018	68.5322
558.0964	68.7616
560.7003	68.8701
563.0526	68.9008
565.4378	68.9375
567.5821	69.0655
569.7921	69.2894
572.1554	69.6046
574.5373	69.9107
576.9280	70.1266
579.3947	70.2668
581.6585	70.3352
583.8966	70.2880
586.0589	70.1657
588.5113	70.0505
590.8781	69.8845
593.3333	69.8974
595.5240	69.9758
597.9850	69.9961
600.2362	69.9913
602.4309	69.8096
604.5004	69.6278
606.8606	69.4808
609.3220	69.4526
611.5130	69.5881
613.9121	69.7621
616.0892	69.8140
618.3580	69.7300
620.5551	69.5683
622.9810	69.4618
625.3130	69.4306
627.6085	69.4982
629.8794	69.5346
632.0895	69.5301
634.7229	69.4039
636.9982	69.3168
639.1832	69.2102
641.4537	69.1608
643.8625	69.2178
645.9767	69.4085
648.1580	69.5986
650.4595	69.6596
652.7955	69.6571
654.9910	69.5528
657.1736	69.5309
659.4416	69.6044
661.8057	69.7043
663.9096	69.7922
666.1452	69.7923
668.1539	69.7421
670.3089	69.6961
672.4963	69.7684
674.6372	69.7310
676.7624	69.6489
678.9701	69.4860
681.0630	69.2979
683.2405	69.2024
685.2790	69.1464
687.6338	69.0934
689.7565	69.0982
691.6591	69.0625
693.8135	69.0127
696.0137	68.9375
698.2646	68.8728
700.1913	68.7827
702.1913	68.6014
704.3362	68.4332
706.5543	68.3412
708.6119	68.3660
710.6670	68.4076
712.8383	68.4369
715.0132	68.4025
717.1017	68.3973
719.4055	68.3529
721.4273	68.3341
723.5984	68.3287
725.7037	68.3376
727.7928	68.2727
729.8690	68.2396
731.8727	68.2199
733.9653	68.2017
735.9875	68.2250
738.1706	68.1414
740.3087	68.1618
742.4687	68.2304
744.4097	68.3197
746.3503	68.3783
748.4980	68.3769
750.7511	68.3591
753.0469	68.3668
755.1850	68.3161
757.2240	68.2364
759.1875	68.1348
761.2956	68.0133
763.5442	67.9209
765.6168	67.8823
767.6360	67.8856
769.8056	67.9183
771.9990	67.9418
774.0526	68.0260
776.2145	68.1002
778.4290	68.1437
780.6076	68.1132
782.8259	68.1194
785.0672	68.2484
787.3065	68.4705
789.5271	68.5818
791.7653	68.5122
793.7772	68.4138
795.7958	68.3535
797.7885	68.4361
799.9606	68.6042
802.0380	68.6876
804.1182	68.7364
806.1270	68.7393
808.3406	68.7827
810.4897	68.8280
812.6959	68.8820
814.6972	68.9069
816.8559	68.9008
818.8721	68.8955
821.0384	68.7902
823.2500	68.6804
825.3721	68.4900
827.4470	68.1901
829.6094	67.9578
831.7294	67.8059
833.6874	67.8398
835.7949	67.9559
838.0360	68.0504
840.2613	68.1011
842.5437	68.1476
844.6873	68.2194
846.9161	68.2668
849.1117	68.2966
851.0543	68.2417
853.2028	68.2437
855.3829	68.3002
857.4730	68.3902
859.6758	68.4134
861.9171	68.4307
863.9392	68.4261
866.0864	68.4119
868.2673	68.4060
870.3757	68.4544
872.4981	68.5795
874.5670	68.7025
876.4582	68.7909
878.7157	68.7515
880.7406	68.5931
882.6808	68.4669
884.6814	68.3295
886.8228	68.2460
888.8848	68.2201
890.9193	68.1928
893.2283	68.1950
895.4280	68.1780
897.5273	68.1213
899.6634	68.0450
901.9132	67.9819
904.0098	67.9035
905.9500	67.8420
908.0483	67.7617
910.1506	67.6740
912.4023	67.6987
914.5058	67.7733
916.5444	67.8140
918.6898	67.9089
920.7475	67.9907
922.5174	68.1517
924.5489	68.2865
926.5918	68.4388
928.5733	68.5314
930.7805	68.4970
932.7868	68.3605
934.8838	68.2048
936.8946	68.0369
938.8822	67.9272
940.8967	67.8343
943.0587	67.7912
945.0405	67.8097
947.0038	67.8599
948.9205	67.8096
951.0312	67.6911
952.8951	67.5740
954.9945	67.4311
957.0845	67.3769
959.0827	67.4337
960.9915	67.5692
962.7821	67.7404
964.8362	67.8559
966.7038	67.8323
968.7757	67.7638
970.9134	67.6541
972.9662	67.5323
975.1930	67.5030
977.1058	67.4980
979.1204	67.4395
981.1331	67.3809
983.1246	67.3612
985.1903	67.4168
987.3057	67.4886
989.2471	67.5680
991.0181	67.5273
992.8448	67.4846
994.8317	67.4115
996.9679	67.3921
998.9444	67.5514
1000.7128	67.6845
1002.6706	67.9003
1004.5619	68.0236
1006.3728	68.0067
1008.2750	67.9273
1010.4270	67.7023
1012.4497	67.5216
1014.4347	67.4533
1016.2371	67.3930
1018.2458	67.3778
1020.3612	67.2964
1022.3916	67.1252
1024.3481	66.9866
1025.9984	66.9903
1027.8097	67.1449
1029.7016	67.3281
1031.5681	67.4288
1033.3053	67.3461
1035.1959	67.2769
1037.0382	67.2124
1039.0784	67.3012
1040.8988	67.4431
1042.8198	67.5631
1044.6583	67.6144
1046.4706	67.5713
1048.3934	67.3962
1050.2632	67.2807
1052.2722	67.2232
1054.0885	67.1653
1056.0408	66.9772
1057.7776	66.6300
1059.8424	66.4728
1061.6521	66.5060
1063.4396	66.6760
1065.3009	66.8343
1067.1619	66.9548
1069.0704	67.0818
1070.8451	67.2265
1072.7865	67.2551
1074.7135	67.1890
1076.5621	67.0963
1078.3998	67.0490
1080.3588	67.1157
1082.1441	67.1366
1083.9309	67.1940
1085.6611	67.1786
1087.4706	67.1740
1089.3364	67.1309
1091.2179	67.0875
1093.0146	67.0067
1094.7583	66.9026
1096.5460	66.8998
1098.2654	66.8891
1100.1755	66.9436
1102.1008	66.9469
1103.9329	66.9580
1105.8329	66.9806
1107.5985	66.9535
1109.5577	66.8701
1111.3083	66.7708
1113.2806	66.6375
1115.1332	66.6329
1116.8702	66.6583
1118.6081	66.7988
1120.5401	66.9536
1122.3788	67.0595
1124.0829	67.1087
1125.9657	67.1127
1127.8791	67.1850
1129.6705	67.2991
1131.7906	67.5567
1133.7204	67.6962
1135.5859	67.7974
1137.3344	67.8090
1139.1291	67.8056
1141.0528	67.8576
1142.8852	67.9029
1144.8481	67.9177
1146.6462	67.8486
1148.4077	67.8105
1150.1196	67.8424
1152.0138	67.9847
1153.8762	68.0967
1155.6203	68.2155
1157.4759	68.3212
1159.4128	68.3887
1161.3779	68.4584
1163.0558	68.5002
1164.8581	68.4171
1166.5172	68.3223
1168.3531	68.1609
1170.2452	68.0581
1172.0507	68.1099
1174.0167	68.1868
1175.8904	68.1926
1177.5894	68.1092
1179.3215	68.0463
1181.0386	68.0466
1182.8448	68.1437
1184.6610	68.2932
1186.4646	68.3863
1188.3701	68.4565
1190.2946	68.4451
1192.1178	68.3889
1193.8294	68.2441
1195.5432	68.1795
1197.3199	68.1394
1199.1879	68.2606
1201.0656	68.4726
1202.9591	68.5396
1204.6173	68.5936
1206.2066	68.5058
1208.0081	68.3408
1209.7154	68.3064
1211.4463	68.2988
1213.1007	68.4048
1214.7565	68.5890
1216.5106	68.7013
1218.2758	68.7831
1220.2216	68.7371
1222.1038	68.6005
1223.6729	68.4025
1225.4761	68.2130
1227.1947	68.1482
1229.0605	68.2056
1230.7631	68.2536
1232.4676	68.1249
1234.0809	67.9172
1236.0004	67.7420
1237.6933	67.7624
1239.5509	67.8322
1241.2864	67.9289
1242.8155	68.0057
1244.5003	68.0528
1246.1653	68.1917
1247.6611	68.3894
1249.4933	68.5128
1251.2480	68.5098
1252.8823	68.3267
1254.5580	68.1856
1256.2614	68.1255
1257.8598	68.1265
1259.6711	68.1416
1261.2928	68.0660
1262.8295	67.9966
1264.3686	67.9597
1266.0065	67.9997
1267.6369	67.9543
1269.2393	67.8422
1270.8286	67.6001
1272.5156	67.3899
1274.1671	67.2996
1275.8451	67.2924
1277.4060	67.3920
1278.9546	67.5222
1280.5593	67.5313
1282.0389	67.4747
1283.6086	67.3611
1285.2294	67.1934
1286.7695	67.1012
1288.3230	67.0693
1289.7830	66.9207
1291.3825	66.7716
1292.9195	66.6450
1294.3848	66.6571
1296.0551	66.7576
1297.6740	66.8407
1299.2756	66.8534
1300.8449	66.8269
1302.2700	66.7898
1303.9010	66.7457
1305.5420	66.6052
1307.0080	66.4644
1308.6380	66.3984
1310.2350	66.3353
1311.8880	66.4096
1313.3860	66.4690
1314.9510	66.5197
1316.5260	66.5620
1317.9270	66.5865
1319.3270	66.6375
1320.8150	66.7546
1322.3800	66.8487
1323.9450	66.9626
1325.5090	66.9855
1327.0630	66.9594
1328.5610	66.9202
1330.1700	66.8087
1331.7340	66.8215
1333.3100	66.8197
1334.9620	66.7967
1336.5050	66.7888
1338.0910	66.6984
1339.7430	66.6350
1341.2750	66.4888
1342.7190	66.3360
1344.2070	66.2170
1345.8590	66.1466
1347.2700	66.2097
1348.7800	66.3534
1350.3230	66.5889
1351.7890	66.7700
1353.3650	66.8554
1354.8630	66.8975
1356.4170	66.8805
1357.8500	66.8971
1359.3600	66.9050
1361.0450	66.9109
1362.6430	66.8891
1364.2290	66.7933
1365.7060	66.6849
1367.1830	66.6138
1368.7690	66.5079
1370.2460	66.4404
1371.9530	66.4166
1373.4300	66.4317
1375.0380	66.4869
1376.4940	66.5381
1378.0470	66.5740
1379.7100	66.6777
1381.2420	66.7600
1382.8070	66.8170
1384.3270	66.9001
1385.9250	67.0233
1387.4670	67.1731
1389.1190	67.2991
1390.5310	67.3038
1392.1170	67.2274
1393.7480	67.1053
1395.2900	67.1690
1396.7010	67.2948
1398.2990	67.4308
1399.7650	67.5292
1401.3080	67.4960
1402.8730	67.4762
1404.4150	67.4334
1405.8700	67.4970
1407.3580	67.5442
1408.8020	67.5942
1410.3060	67.5885
1411.8110	67.5225
1413.3100	67.5105
1414.8300	67.4609
1416.3620	67.4353
1417.8180	67.3672
1419.3380	67.3800
1420.7820	67.3395
1422.2810	67.3156
1423.8460	67.2170
1425.1040	67.1919
1426.6910	67.1625
1428.1570	67.2415
1429.6660	67.2525
1431.0670	67.2306
1432.5880	67.1630
1433.9440	67.0773
1435.3010	67.0540
1436.7120	67.0865
1438.2330	67.1397
1439.6990	67.1666
1441.1650	67.1593
1442.6100	67.1256
1444.0870	67.0867
1445.5960	67.0453
1446.9970	67.0058
1448.5720	66.9484
1450.0600	66.9352
1451.5260	66.8815
1453.0140	66.9622
1454.5020	66.9600
1455.9680	66.9685
1457.3360	66.9362
1458.7470	66.9058
1460.2350	66.8899
1461.6140	66.9468
1462.8940	67.0876
1464.2830	67.2277
1465.5310	67.4255
1467.0410	67.5236
1468.3640	67.5136
1469.7320	67.4931
1471.1650	67.4782
1472.4240	67.4612
1473.6270	67.4534
1474.9290	67.3958
1476.3190	67.2713
1477.7520	67.1355
1479.0980	66.9440
1480.4430	66.7656
1481.6250	66.6034
1482.9050	66.4776
1484.1630	66.2837
1485.4760	66.1228
1486.8980	65.9621
1488.2220	65.8282
1489.4700	65.7562
1490.6950	65.6621
1491.9970	65.6817
1493.3970	65.6452
1494.6770	65.5563
1495.8480	65.4435
1497.2270	65.2768
1498.5720	65.2030
1499.7430	65.1837
1501.0450	65.2547
1502.2920	65.3161
1503.4960	65.3255
1504.7870	65.2015
1506.0010	65.0029
1507.1720	64.9006
1508.4300	64.8814
1509.6880	64.9886
1510.9680	65.0677
1512.3250	65.0722
1513.5610	64.9293
1514.8850	64.7895
1516.1220	64.7387
1517.3580	64.7703
1518.6820	64.7974
1520.0170	64.7104
1521.3190	64.6556
1522.6640	64.5870
1523.9660	64.5706
1525.1700	64.5529
1526.4060	64.5301
1527.8280	64.5709
1529.2400	64.6717
1530.4430	64.7439
1531.7340	64.8774
1532.9270	65.0317
1534.1520	65.2189
1535.3780	65.3863
1536.7340	65.5373
1538.0580	65.5614
1539.2940	65.5778
1540.4760	65.5709
1541.6800	65.5839
1542.9710	65.7107
1544.2730	65.8316
1545.5090	65.9041
1546.8550	65.8847
1548.0910	65.8027
1549.3050	65.7295
1550.5530	65.7207
1551.7130	65.7886
1552.9810	65.8149
1554.3490	65.7375
1555.6400	65.6063
1556.8550	65.4678
1558.0910	65.4668
1559.3270	65.5673
1560.4110	65.6273
1561.6800	65.7437
1562.9160	65.7277
1564.1630	65.6504
1565.4540	65.6058
1566.6360	65.6535
1567.9490	65.7940
1569.1630	65.9141
1570.4100	65.9899
1571.6800	65.9750
1572.9050	65.9198
1574.1740	65.9057
1575.4100	65.8890
1576.6140	65.9946
1577.8390	66.1358
1578.9990	66.1468
1580.2460	66.1086
1581.5810	65.9633
1582.7630	65.8659
1584.0760	65.9007
1585.1920	65.9723
1586.6140	66.1077
1587.7850	66.2557
1588.9330	66.3341
1590.0930	66.3085
1591.2970	66.3123
1592.6530	66.2916
1593.9230	66.2570
1595.2030	66.2622
1596.4390	66.2149
1597.6750	66.2230
1598.9660	66.2099
1600.2360	66.1481
1601.4500	66.1360
1602.7300	66.1601
1604.0320	66.2479
1605.2240	66.3664
1606.3950	66.3950
1607.5550	66.4635
1608.8790	66.4140
1610.0820	66.4348
1611.3620	66.3653
1612.5880	66.3476
1613.7370	66.3817
1614.8630	66.4900
1616.0560	66.6989
1617.2920	66.8335
1618.4740	66.8311
1619.8630	66.7687
1621.0450	66.6532
1622.1640	66.6373
1623.3100	66.5970
1624.4800	66.5632
1625.7170	66.5108
1626.8110	66.4669
1627.9050	66.3775
1629.0650	66.2694
1630.2570	66.1178
1631.3950	66.0219
1632.6430	66.0529
1633.8380	66.0530
1634.9290	66.0211
1636.1220	65.8842
1637.3250	65.7714
1638.4410	65.7014
1639.5680	65.7827
1640.6510	65.8500
1641.7230	65.9218
1642.8060	65.9248
1643.9550	65.7662
1645.0490	65.5563
1646.2970	65.3640
1647.4020	65.2696
1648.6160	65.3146
1649.8200	65.2724
1650.9800	65.2261
1652.1720	65.2034
1653.2660	65.3014
1654.4180	65.3742
1655.5420	65.3968
1656.7560	65.3006
1657.8610	65.1614
1658.8790	65.0501
1660.0280	64.9521
1661.1280	64.8945
1662.3030	64.8459
1663.3650	64.8184
1664.5130	64.8629
1665.7060	65.0085
1666.9200	65.1589
1668.0470	65.3137
1669.1960	65.4149
1670.3340	65.4257
1671.4830	65.3813
1672.5770	65.2838
1673.7260	65.1987
1674.9840	65.0882
1676.1110	64.9627
1677.2160	64.9249
1678.1790	64.8981
1679.4040	64.9022
1680.4210	64.8395
1681.4830	64.8395
1682.7190	64.8990
1683.9550	65.0067
1684.8850	65.1142
1685.9250	65.1361
1686.9530	65.1610
1688.1570	65.2025
1689.2290	65.1775
1690.3990	65.0778
1691.3960	64.9592
1692.5000	64.8461
1693.5830	64.8384
1694.7760	64.7935
1695.9150	64.7382
1696.8770	64.6940
1697.9270	64.5604
1698.9770	64.3774
1700.0280	64.2590
1701.0560	64.1948
1702.0730	64.1918
1703.1240	64.2688
1704.2940	64.3120
1705.3230	64.2297
1706.3950	64.0239
1707.5330	63.8794
1708.5180	63.7944
1709.5350	63.9251
1710.5310	64.0195
1711.6140	63.9957
1712.6320	63.9202
1713.6380	63.8257
1714.7320	63.8228
1715.6730	63.7841
1716.7010	63.6791
1717.7080	63.4598
1718.7910	63.3153
1719.7980	63.2535
1720.7720	63.2875
1721.7890	63.3833
1722.8280	63.4095
1723.8350	63.4208
1724.9400	63.4811
1725.9680	63.4716
1726.9860	63.4311
1728.0580	63.3044
1729.1850	63.1435
1730.2350	63.0614
1731.2860	63.0037
1732.4340	63.0310
1733.3210	63.1016
1734.3050	63.1442
1735.2900	63.2029
1736.2890	63.2041
1737.3140	63.2493
1738.3540	63.3519
1739.4590	63.4329
1740.5530	63.5559
1741.5370	63.6039
1742.6640	63.6832
1743.8130	63.8052
1744.8520	63.9882
1745.9030	64.1217
1747.0190	64.1704
1748.1240	64.2289
1749.2070	64.2565
1750.3120	64.3416
1751.3190	64.3255
1752.4020	64.2843
1753.4960	64.2117
1754.6770	64.1186
1755.7280	64.2088
1756.7560	64.3743
1757.7190	64.6574
1758.9120	64.9312
1759.9730	65.1727
1760.9790	65.3600
1762.0620	65.4697
1763.1130	65.5190
1764.1290	65.5703
1765.2010	65.5799
1766.2390	65.5768
1767.2880	65.6138
1768.3680	65.6247
1769.4040	65.6476
1770.4960	65.6371
1771.4940	65.5789
1772.3870	65.5165
1773.4880	65.5169
1774.5620	65.5612
1775.6630	65.5378
1776.6410	65.4762
1777.8320	65.3536
1778.9370	65.3365
1780.0780	65.3822
1781.0220	65.4166
1781.9080	65.4365
1782.9020	65.4564
1783.8960	65.4197
1784.9670	65.4076
1786.0300	65.4025
1786.9960	65.3835
1788.0110	65.4000
1789.0480	65.4626
1789.9850	65.4384
1791.0420	65.4398
1792.0670	65.3604
1793.1090	65.3030
1794.2010	65.3759
1795.3030	65.4867
1796.3490	65.5972
1797.3540	65.5784
1798.3640	65.5224
1799.3600	65.4051
1800.2980	65.2427
1801.2700	64.9761
1802.2990	64.6838
1803.2690	64.6180
1804.2910	64.7312
1805.2850	64.9477
1806.2590	65.1232
1807.3100	65.1426
1808.4200	65.1032
1809.5040	65.0641
1810.5300	65.0836
1811.5220	65.1960
1812.4810	65.3335
1813.4590	65.4320
1814.3240	65.4604
1815.3780	65.4501
1816.3210	65.3529
1817.3120	65.1844
1818.3430	65.0216
1819.3710	64.9078
1820.4500	64.8397
1821.4880	64.8971
1822.4930	64.9603
1823.4310	65.1081
1824.4190	65.2034
1825.3830	65.2855
1826.4450	65.3233
1827.4240	65.3738
1828.3880	65.4627
1829.3670	65.4507
1830.3360	65.3263
1831.3990	65.1197
1832.2580	64.9138
1833.2750	64.8309
1834.3810	64.8528
1835.2770	64.9729
1836.3210	65.1352
1837.3840	65.2931
1838.3430	65.3932
1839.3670	65.4185
1840.3270	65.4578
1841.3190	65.4217
1842.3390	65.3117
1843.3880	65.2014
1844.4760	65.1225
1845.5050	65.1541
1846.4020	65.2500
1847.3540	65.3206
1848.3280	65.3373
1849.3080	65.3827
1850.2030	65.4187
1851.1970	65.5182
1852.2570	65.5582
1853.2910	65.6344
1854.3030	65.7413
1855.2930	65.7248
1856.2800	65.7804
1857.2690	65.7840
1858.2440	65.7359
1859.3270	65.7392
1860.3540	65.6712
1861.3020	65.6846
1862.3340	65.7613
1863.3730	65.8146
1864.2680	65.8124
1865.2930	65.6896
1866.3280	65.5435
1867.3490	65.4751
1868.3100	65.5144
1869.2350	65.6400
1870.1670	65.7793
1871.1110	65.9446
1872.0170	66.1279
1873.0080	66.2191
1873.9810	66.2658
1874.9770	66.1958
1875.9600	66.1082
1877.0060	66.0930
1878.0570	66.1172
1879.0950	66.1775
1880.1550	66.1715
1881.1420	66.0820
1882.1440	66.0360
1883.2230	65.9743
1884.2340	65.9670
1885.2800	66.0202
1886.2970	66.0436
1887.3200	66.0448
1888.3140	65.9952
1889.3970	65.9348
1890.4140	66.0183
1891.3980	66.1894
1892.4630	66.4238
1893.5320	66.7174
1894.4330	66.9314
1895.5130	67.1678
1896.5410	67.2996
1897.4510	67.4211
1898.4690	67.5266
1899.5380	67.5666
1900.5510	67.5788
1901.6490	67.5425
1902.7220	67.5423
1903.7630	67.5655
1904.8100	67.5927
1905.8910	67.6008
1906.8330	67.6106
1907.8610	67.6802
1908.8870	67.7739
1909.8890	67.8443
1910.9510	67.8496
1912.0870	67.8327
1913.1860	67.8224
1914.1860	67.8224
1915.1620	67.8788
1916.1440	67.9312
1917.2190	67.9750
1918.3070	68.1648
1919.4360	68.3249
1920.5200	68.5237
1921.5240	68.7113
1922.5390	68.7177
1923.6700	68.6815
1924.7200	68.6025
1925.8340	68.5711
1926.9580	68.5329
1928.1060	68.6221
1929.1840	68.7586
